Theta [deg.]  Phi   [deg.]  Abs(Gain)[dBi   ]   Abs(Theta)[dBi   ]  Phase(Theta)[deg.]  Abs(Phi  )[dBi   ]  Phase(Phi  )[deg.]  Ax.Ratio[dB    ]    
------------------------------------------------------------------------------------------------------------------------------------------------------
   0.000          90.000           -5.468e-01          -5.468e-01             323.687          -1.048e+02             227.966           4.000e+01     
   1.000          90.000           -5.514e-01          -5.514e-01             323.648          -1.049e+02             226.791           4.000e+01     
   2.000          90.000           -5.587e-01          -5.587e-01             323.606          -1.049e+02             225.608           4.000e+01     
   3.000          90.000           -5.688e-01          -5.688e-01             323.562          -1.049e+02             224.419           4.000e+01     
   4.000          90.000           -5.817e-01          -5.817e-01             323.515          -1.050e+02             223.225           4.000e+01     
   5.000          90.000           -5.973e-01          -5.973e-01             323.466          -1.050e+02             222.028           4.000e+01     
   6.000          90.000           -6.157e-01          -6.157e-01             323.414          -1.051e+02             220.828           4.000e+01     
   7.000          90.000           -6.369e-01          -6.369e-01             323.359          -1.051e+02             219.626           4.000e+01     
   8.000          90.000           -6.608e-01          -6.608e-01             323.302          -1.052e+02             218.424           4.000e+01     
   9.000          90.000           -6.875e-01          -6.875e-01             323.242          -1.052e+02             217.223           4.000e+01     
  10.000          90.000           -7.169e-01          -7.169e-01             323.180          -1.053e+02             216.023           4.000e+01     
  11.000          90.000           -7.490e-01          -7.490e-01             323.115          -1.053e+02             214.827           4.000e+01     
  12.000          90.000           -7.838e-01          -7.838e-01             323.047          -1.054e+02             213.634           4.000e+01     
  13.000          90.000           -8.214e-01          -8.214e-01             322.977          -1.054e+02             212.447           4.000e+01     
  14.000          90.000           -8.617e-01          -8.617e-01             322.904          -1.054e+02             211.266           4.000e+01     
  15.000          90.000           -9.046e-01          -9.046e-01             322.829          -1.055e+02             210.092           4.000e+01     
  16.000          90.000           -9.503e-01          -9.503e-01             322.750          -1.055e+02             208.926           4.000e+01     
  17.000          90.000           -9.986e-01          -9.986e-01             322.669          -1.056e+02             207.770           4.000e+01     
  18.000          90.000           -1.050e+00          -1.050e+00             322.586          -1.057e+02             206.625           4.000e+01     
  19.000          90.000           -1.103e+00          -1.103e+00             322.499          -1.057e+02             205.490           4.000e+01     
  20.000          90.000           -1.159e+00          -1.159e+00             322.410          -1.058e+02             204.368           4.000e+01     
  21.000          90.000           -1.218e+00          -1.218e+00             322.318          -1.058e+02             203.259           4.000e+01     
  22.000          90.000           -1.280e+00          -1.280e+00             322.223          -1.059e+02             202.165           4.000e+01     
  23.000          90.000           -1.344e+00          -1.344e+00             322.125          -1.059e+02             201.085           4.000e+01     
  24.000          90.000           -1.411e+00          -1.411e+00             322.024          -1.060e+02             200.021           4.000e+01     
  25.000          90.000           -1.480e+00          -1.480e+00             321.921          -1.061e+02             198.973           4.000e+01     
  26.000          90.000           -1.552e+00          -1.552e+00             321.814          -1.061e+02             197.943           4.000e+01     
  27.000          90.000           -1.626e+00          -1.626e+00             321.704          -1.062e+02             196.931           4.000e+01     
  28.000          90.000           -1.703e+00          -1.703e+00             321.591          -1.063e+02             195.937           4.000e+01     
  29.000          90.000           -1.782e+00          -1.782e+00             321.475          -1.063e+02             194.963           4.000e+01     
  30.000          90.000           -1.864e+00          -1.864e+00             321.355          -1.064e+02             194.008           4.000e+01     
  31.000          90.000           -1.948e+00          -1.948e+00             321.232          -1.065e+02             193.074           4.000e+01     
  32.000          90.000           -2.034e+00          -2.034e+00             321.106          -1.066e+02             192.161           4.000e+01     
  33.000          90.000           -2.123e+00          -2.123e+00             320.976          -1.067e+02             191.270           4.000e+01     
  34.000          90.000           -2.215e+00          -2.215e+00             320.842          -1.068e+02             190.401           4.000e+01     
  35.000          90.000           -2.309e+00          -2.309e+00             320.705          -1.069e+02             189.554           4.000e+01     
  36.000          90.000           -2.405e+00          -2.405e+00             320.564          -1.069e+02             188.731           4.000e+01     
  37.000          90.000           -2.503e+00          -2.503e+00             320.419          -1.071e+02             187.931           4.000e+01     
  38.000          90.000           -2.604e+00          -2.604e+00             320.270          -1.072e+02             187.156           4.000e+01     
  39.000          90.000           -2.707e+00          -2.707e+00             320.116          -1.073e+02             186.405           4.000e+01     
  40.000          90.000           -2.812e+00          -2.812e+00             319.959          -1.074e+02             185.680           4.000e+01     
  41.000          90.000           -2.920e+00          -2.920e+00             319.796          -1.075e+02             184.980           4.000e+01     
  42.000          90.000           -3.029e+00          -3.029e+00             319.630          -1.076e+02             184.307           4.000e+01     
  43.000          90.000           -3.141e+00          -3.141e+00             319.458          -1.078e+02             183.661           4.000e+01     
  44.000          90.000           -3.255e+00          -3.255e+00             319.281          -1.079e+02             183.043           4.000e+01     
  45.000          90.000           -3.371e+00          -3.371e+00             319.099          -1.081e+02             182.454           4.000e+01     
  46.000          90.000           -3.490e+00          -3.490e+00             318.912          -1.082e+02             181.895           4.000e+01     
  47.000          90.000           -3.610e+00          -3.610e+00             318.719          -1.084e+02             181.365           4.000e+01     
  48.000          90.000           -3.732e+00          -3.732e+00             318.521          -1.086e+02             180.868           4.000e+01     
  49.000          90.000           -3.857e+00          -3.857e+00             318.316          -1.088e+02             180.403           4.000e+01     
  50.000          90.000           -3.983e+00          -3.983e+00             318.105          -1.089e+02             179.972           4.000e+01     
  51.000          90.000           -4.111e+00          -4.111e+00             317.887          -1.091e+02             179.576           4.000e+01     
  52.000          90.000           -4.242e+00          -4.242e+00             317.663          -1.093e+02             179.218           4.000e+01     
  53.000          90.000           -4.374e+00          -4.374e+00             317.431          -1.096e+02             178.899           4.000e+01     
  54.000          90.000           -4.508e+00          -4.508e+00             317.192          -1.098e+02             178.622           4.000e+01     
  55.000          90.000           -4.643e+00          -4.643e+00             316.945          -1.100e+02             178.388           4.000e+01     
  56.000          90.000           -4.781e+00          -4.781e+00             316.690          -1.103e+02             178.202           4.000e+01     
  57.000          90.000           -4.920e+00          -4.920e+00             316.426          -1.106e+02             178.066           4.000e+01     
  58.000          90.000           -5.062e+00          -5.062e+00             316.153          -1.108e+02             177.984           4.000e+01     
  59.000          90.000           -5.204e+00          -5.204e+00             315.872          -1.111e+02             177.961           4.000e+01     
  60.000          90.000           -5.349e+00          -5.349e+00             315.580          -1.114e+02             178.003           4.000e+01     
  61.000          90.000           -5.495e+00          -5.495e+00             315.278          -1.118e+02             178.116           4.000e+01     
  62.000          90.000           -5.643e+00          -5.643e+00             314.965          -1.121e+02             178.307           4.000e+01     
  63.000          90.000           -5.792e+00          -5.792e+00             314.642          -1.125e+02             178.586           4.000e+01     
  64.000          90.000           -5.943e+00          -5.943e+00             314.306          -1.129e+02             178.963           4.000e+01     
  65.000          90.000           -6.095e+00          -6.095e+00             313.958          -1.133e+02             179.452           4.000e+01     
  66.000          90.000           -6.249e+00          -6.249e+00             313.598          -1.137e+02             180.069           4.000e+01     
  67.000          90.000           -6.404e+00          -6.404e+00             313.224          -1.142e+02             180.833           4.000e+01     
  68.000          90.000           -6.560e+00          -6.560e+00             312.836          -1.147e+02             181.768           4.000e+01     
  69.000          90.000           -6.718e+00          -6.718e+00             312.433          -1.152e+02             182.905           4.000e+01     
  70.000          90.000           -6.877e+00          -6.877e+00             312.015          -1.157e+02             184.281           4.000e+01     
  71.000          90.000           -7.037e+00          -7.037e+00             311.580          -1.163e+02             185.943           4.000e+01     
  72.000          90.000           -7.198e+00          -7.198e+00             311.129          -1.169e+02             187.951           4.000e+01     
  73.000          90.000           -7.360e+00          -7.360e+00             310.660          -1.176e+02             190.381           4.000e+01     
  74.000          90.000           -7.523e+00          -7.523e+00             310.172          -1.183e+02             193.327           4.000e+01     
  75.000          90.000           -7.687e+00          -7.687e+00             309.666          -1.190e+02             196.908           4.000e+01     
  76.000          90.000           -7.852e+00          -7.852e+00             309.139          -1.198e+02             201.266           4.000e+01     
  77.000          90.000           -8.017e+00          -8.017e+00             308.591          -1.205e+02             206.561           4.000e+01     
  78.000          90.000           -8.184e+00          -8.184e+00             308.021          -1.212e+02             212.948           4.000e+01     
  79.000          90.000           -8.350e+00          -8.350e+00             307.428          -1.219e+02             220.528           4.000e+01     
  80.000          90.000           -8.517e+00          -8.517e+00             306.811          -1.223e+02             229.259           4.000e+01     
  81.000          90.000           -8.685e+00          -8.685e+00             306.169          -1.226e+02             238.875           4.000e+01     
  82.000          90.000           -8.852e+00          -8.852e+00             305.501          -1.226e+02             248.860           4.000e+01     
  83.000          90.000           -9.020e+00          -9.020e+00             304.806          -1.223e+02             258.582           4.000e+01     
  84.000          90.000           -9.187e+00          -9.187e+00             304.084          -1.218e+02             267.500           4.000e+01     
  85.000          90.000           -9.354e+00          -9.354e+00             303.332          -1.212e+02             275.312           4.000e+01     
  86.000          90.000           -9.521e+00          -9.521e+00             302.550          -1.204e+02             281.952           4.000e+01     
  87.000          90.000           -9.686e+00          -9.686e+00             301.737          -1.196e+02             287.506           4.000e+01     
  88.000          90.000           -9.851e+00          -9.851e+00             300.892          -1.189e+02             292.125           4.000e+01     
  89.000          90.000           -1.002e+01          -1.002e+01             300.014          -1.181e+02             295.971           4.000e+01     
  90.000          90.000           -1.018e+01          -1.018e+01             299.102          -1.173e+02             299.189           4.000e+01     
  91.000          90.000           -1.034e+01          -1.034e+01             298.155          -1.166e+02             301.901           4.000e+01     
  92.000          90.000           -1.050e+01          -1.050e+01             297.173          -1.160e+02             304.205           4.000e+01     
  93.000          90.000           -1.065e+01          -1.065e+01             296.154          -1.153e+02             306.179           4.000e+01     
  94.000          90.000           -1.081e+01          -1.081e+01             295.098          -1.147e+02             307.884           4.000e+01     
  95.000          90.000           -1.096e+01          -1.096e+01             294.004          -1.142e+02             309.369           4.000e+01     
  96.000          90.000           -1.111e+01          -1.111e+01             292.872          -1.136e+02             310.674           4.000e+01     
  97.000          90.000           -1.125e+01          -1.125e+01             291.703          -1.131e+02             311.829           4.000e+01     
  98.000          90.000           -1.139e+01          -1.139e+01             290.495          -1.127e+02             312.859           4.000e+01     
  99.000          90.000           -1.153e+01          -1.153e+01             289.249          -1.122e+02             313.785           4.000e+01     
 100.000          90.000           -1.166e+01          -1.166e+01             287.965          -1.118e+02             314.622           4.000e+01     
 101.000          90.000           -1.179e+01          -1.179e+01             286.645          -1.114e+02             315.385           4.000e+01     
 102.000          90.000           -1.191e+01          -1.191e+01             285.288          -1.110e+02             316.085           4.000e+01     
 103.000          90.000           -1.202e+01          -1.202e+01             283.897          -1.106e+02             316.732           4.000e+01     
 104.000          90.000           -1.213e+01          -1.213e+01             282.472          -1.103e+02             317.333           4.000e+01     
 105.000          90.000           -1.224e+01          -1.224e+01             281.015          -1.099e+02             317.895           4.000e+01     
 106.000          90.000           -1.233e+01          -1.233e+01             279.529          -1.096e+02             318.424           4.000e+01     
 107.000          90.000           -1.242e+01          -1.242e+01             278.015          -1.093e+02             318.925           4.000e+01     
 108.000          90.000           -1.250e+01          -1.250e+01             276.477          -1.090e+02             319.402           4.000e+01     
 109.000          90.000           -1.257e+01          -1.257e+01             274.917          -1.087e+02             319.858           4.000e+01     
 110.000          90.000           -1.263e+01          -1.263e+01             273.338          -1.084e+02             320.298           4.000e+01     
 111.000          90.000           -1.269e+01          -1.269e+01             271.743          -1.082e+02             320.723           4.000e+01     
 112.000          90.000           -1.273e+01          -1.273e+01             270.137          -1.079e+02             321.136           4.000e+01     
 113.000          90.000           -1.277e+01          -1.277e+01             268.523          -1.077e+02             321.540           4.000e+01     
 114.000          90.000           -1.279e+01          -1.279e+01             266.904          -1.075e+02             321.936           4.000e+01     
 115.000          90.000           -1.281e+01          -1.281e+01             265.285          -1.073e+02             322.326           4.000e+01     
 116.000          90.000           -1.282e+01          -1.282e+01             263.670          -1.071e+02             322.712           4.000e+01     
 117.000          90.000           -1.282e+01          -1.282e+01             262.061          -1.069e+02             323.095           4.000e+01     
 118.000          90.000           -1.282e+01          -1.282e+01             260.464          -1.067e+02             323.476           4.000e+01     
 119.000          90.000           -1.280e+01          -1.280e+01             258.881          -1.065e+02             323.856           4.000e+01     
 120.000          90.000           -1.278e+01          -1.278e+01             257.316          -1.063e+02             324.236           4.000e+01     
 121.000          90.000           -1.274e+01          -1.274e+01             255.772          -1.061e+02             324.618           4.000e+01     
 122.000          90.000           -1.270e+01          -1.270e+01             254.252          -1.060e+02             325.002           4.000e+01     
 123.000          90.000           -1.266e+01          -1.266e+01             252.759          -1.058e+02             325.389           4.000e+01     
 124.000          90.000           -1.260e+01          -1.260e+01             251.295          -1.057e+02             325.779           4.000e+01     
 125.000          90.000           -1.255e+01          -1.255e+01             249.863          -1.056e+02             326.175           4.000e+01     
 126.000          90.000           -1.248e+01          -1.248e+01             248.464          -1.054e+02             326.575           4.000e+01     
 127.000          90.000           -1.241e+01          -1.241e+01             247.099          -1.053e+02             326.981           4.000e+01     
 128.000          90.000           -1.234e+01          -1.234e+01             245.771          -1.052e+02             327.393           4.000e+01     
 129.000          90.000           -1.226e+01          -1.226e+01             244.480          -1.051e+02             327.811           4.000e+01     
 130.000          90.000           -1.217e+01          -1.217e+01             243.226          -1.050e+02             328.238           4.000e+01     
 131.000          90.000           -1.209e+01          -1.209e+01             242.011          -1.049e+02             328.672           4.000e+01     
 132.000          90.000           -1.200e+01          -1.200e+01             240.834          -1.048e+02             329.114           4.000e+01     
 133.000          90.000           -1.191e+01          -1.191e+01             239.697          -1.047e+02             329.565           4.000e+01     
 134.000          90.000           -1.181e+01          -1.181e+01             238.597          -1.046e+02             330.025           4.000e+01     
 135.000          90.000           -1.172e+01          -1.172e+01             237.537          -1.045e+02             330.495           4.000e+01     
 136.000          90.000           -1.162e+01          -1.162e+01             236.514          -1.044e+02             330.975           4.000e+01     
 137.000          90.000           -1.152e+01          -1.152e+01             235.528          -1.044e+02             331.465           4.000e+01     
 138.000          90.000           -1.142e+01          -1.142e+01             234.580          -1.043e+02             331.966           4.000e+01     
 139.000          90.000           -1.133e+01          -1.133e+01             233.667          -1.043e+02             332.479           4.000e+01     
 140.000          90.000           -1.123e+01          -1.123e+01             232.790          -1.042e+02             333.003           4.000e+01     
 141.000          90.000           -1.113e+01          -1.113e+01             231.948          -1.042e+02             333.539           4.000e+01     
 142.000          90.000           -1.103e+01          -1.103e+01             231.139          -1.041e+02             334.087           4.000e+01     
 143.000          90.000           -1.094e+01          -1.094e+01             230.364          -1.041e+02             334.648           4.000e+01     
 144.000          90.000           -1.084e+01          -1.084e+01             229.620          -1.040e+02             335.223           4.000e+01     
 145.000          90.000           -1.075e+01          -1.075e+01             228.908          -1.040e+02             335.810           4.000e+01     
 146.000          90.000           -1.065e+01          -1.065e+01             228.225          -1.040e+02             336.412           4.000e+01     
 147.000          90.000           -1.056e+01          -1.056e+01             227.572          -1.040e+02             337.028           4.000e+01     
 148.000          90.000           -1.047e+01          -1.047e+01             226.947          -1.040e+02             337.659           4.000e+01     
 149.000          90.000           -1.039e+01          -1.039e+01             226.350          -1.039e+02             338.304           4.000e+01     
 150.000          90.000           -1.030e+01          -1.030e+01             225.779          -1.039e+02             338.965           4.000e+01     
 151.000          90.000           -1.022e+01          -1.022e+01             225.235          -1.039e+02             339.642           4.000e+01     
 152.000          90.000           -1.014e+01          -1.014e+01             224.715          -1.039e+02             340.335           4.000e+01     
 153.000          90.000           -1.006e+01          -1.006e+01             224.219          -1.039e+02             341.044           4.000e+01     
 154.000          90.000           -9.989e+00          -9.989e+00             223.747          -1.039e+02             341.770           4.000e+01     
 155.000          90.000           -9.916e+00          -9.916e+00             223.297          -1.040e+02             342.512           4.000e+01     
 156.000          90.000           -9.847e+00          -9.847e+00             222.869          -1.040e+02             343.273           4.000e+01     
 157.000          90.000           -9.781e+00          -9.781e+00             222.463          -1.040e+02             344.051           4.000e+01     
 158.000          90.000           -9.718e+00          -9.718e+00             222.078          -1.040e+02             344.847           4.000e+01     
 159.000          90.000           -9.657e+00          -9.657e+00             221.712          -1.040e+02             345.661           4.000e+01     
 160.000          90.000           -9.600e+00          -9.600e+00             221.366          -1.041e+02             346.494           4.000e+01     
 161.000          90.000           -9.546e+00          -9.546e+00             221.039          -1.041e+02             347.346           4.000e+01     
 162.000          90.000           -9.495e+00          -9.495e+00             220.730          -1.041e+02             348.217           4.000e+01     
 163.000          90.000           -9.448e+00          -9.448e+00             220.440          -1.042e+02             349.108           4.000e+01     
 164.000          90.000           -9.403e+00          -9.403e+00             220.167          -1.042e+02             350.018           4.000e+01     
 165.000          90.000           -9.363e+00          -9.363e+00             219.911          -1.043e+02             350.947           4.000e+01     
 166.000          90.000           -9.325e+00          -9.325e+00             219.672          -1.043e+02             351.897           4.000e+01     
 167.000          90.000           -9.291e+00          -9.291e+00             219.449          -1.044e+02             352.867           4.000e+01     
 168.000          90.000           -9.261e+00          -9.261e+00             219.242          -1.044e+02             353.856           4.000e+01     
 169.000          90.000           -9.233e+00          -9.233e+00             219.051          -1.045e+02             354.866           4.000e+01     
 170.000          90.000           -9.210e+00          -9.210e+00             218.875          -1.045e+02             355.896           4.000e+01     
 171.000          90.000           -9.190e+00          -9.190e+00             218.714          -1.046e+02             356.946           4.000e+01     
 172.000          90.000           -9.173e+00          -9.173e+00             218.569          -1.046e+02             358.016           4.000e+01     
 173.000          90.000           -9.160e+00          -9.160e+00             218.438          -1.047e+02             359.106           4.000e+01     
 174.000          90.000           -9.151e+00          -9.151e+00             218.323          -1.048e+02               0.215           4.000e+01     
 175.000          90.000           -9.145e+00          -9.145e+00             218.221          -1.048e+02               1.344           4.000e+01     
 176.000          90.000           -9.143e+00          -9.143e+00             218.134          -1.049e+02               2.492           4.000e+01     
 177.000          90.000           -9.145e+00          -9.145e+00             218.062          -1.050e+02               3.658           4.000e+01     
 178.000          90.000           -9.150e+00          -9.150e+00             218.003          -1.050e+02               4.842           4.000e+01     
 179.000          90.000           -9.159e+00          -9.159e+00             217.959          -1.051e+02               6.044           4.000e+01     
 180.000          90.000           -9.172e+00          -9.172e+00             217.930          -1.052e+02               7.260           4.000e+01     
 179.000         270.000           -9.188e+00          -9.188e+00              37.914          -1.052e+02             188.495           4.000e+01     
 178.000         270.000           -9.208e+00          -9.208e+00              37.914          -1.053e+02             189.745           4.000e+01     
 177.000         270.000           -9.231e+00          -9.231e+00              37.927          -1.054e+02             191.009           4.000e+01     
 176.000         270.000           -9.258e+00          -9.258e+00              37.956          -1.054e+02             192.287           4.000e+01     
 175.000         270.000           -9.289e+00          -9.289e+00              37.999          -1.055e+02             193.577           4.000e+01     
 174.000         270.000           -9.323e+00          -9.323e+00              38.057          -1.056e+02             194.879           4.000e+01     
 173.000         270.000           -9.362e+00          -9.362e+00              38.130          -1.057e+02             196.191           4.000e+01     
 172.000         270.000           -9.403e+00          -9.403e+00              38.218          -1.057e+02             197.512           4.000e+01     
 171.000         270.000           -9.449e+00          -9.449e+00              38.323          -1.058e+02             198.841           4.000e+01     
 170.000         270.000           -9.498e+00          -9.498e+00              38.443          -1.059e+02             200.176           4.000e+01     
 169.000         270.000           -9.551e+00          -9.551e+00              38.580          -1.059e+02             201.516           4.000e+01     
 168.000         270.000           -9.607e+00          -9.607e+00              38.733          -1.060e+02             202.860           4.000e+01     
 167.000         270.000           -9.667e+00          -9.667e+00              38.903          -1.061e+02             204.205           4.000e+01     
 166.000         270.000           -9.730e+00          -9.730e+00              39.092          -1.061e+02             205.551           4.000e+01     
 165.000         270.000           -9.797e+00          -9.797e+00              39.298          -1.062e+02             206.897           4.000e+01     
 164.000         270.000           -9.867e+00          -9.867e+00              39.523          -1.063e+02             208.239           4.000e+01     
 163.000         270.000           -9.941e+00          -9.941e+00              39.767          -1.063e+02             209.578           4.000e+01     
 162.000         270.000           -1.002e+01          -1.002e+01              40.031          -1.064e+02             210.912           4.000e+01     
 161.000         270.000           -1.010e+01          -1.010e+01              40.315          -1.065e+02             212.238           4.000e+01     
 160.000         270.000           -1.018e+01          -1.018e+01              40.621          -1.065e+02             213.556           4.000e+01     
 159.000         270.000           -1.027e+01          -1.027e+01              40.948          -1.066e+02             214.864           4.000e+01     
 158.000         270.000           -1.036e+01          -1.036e+01              41.299          -1.067e+02             216.160           4.000e+01     
 157.000         270.000           -1.046e+01          -1.046e+01              41.673          -1.067e+02             217.444           4.000e+01     
 156.000         270.000           -1.055e+01          -1.055e+01              42.072          -1.068e+02             218.714           4.000e+01     
 155.000         270.000           -1.065e+01          -1.065e+01              42.496          -1.069e+02             219.969           4.000e+01     
 154.000         270.000           -1.076e+01          -1.076e+01              42.947          -1.070e+02             221.207           4.000e+01     
 153.000         270.000           -1.086e+01          -1.086e+01              43.425          -1.070e+02             222.428           4.000e+01     
 152.000         270.000           -1.097e+01          -1.097e+01              43.933          -1.071e+02             223.630           4.000e+01     
 151.000         270.000           -1.108e+01          -1.108e+01              44.470          -1.072e+02             224.813           4.000e+01     
 150.000         270.000           -1.119e+01          -1.119e+01              45.038          -1.072e+02             225.975           4.000e+01     
 149.000         270.000           -1.131e+01          -1.131e+01              45.639          -1.073e+02             227.116           4.000e+01     
 148.000         270.000           -1.143e+01          -1.143e+01              46.274          -1.074e+02             228.235           4.000e+01     
 147.000         270.000           -1.155e+01          -1.155e+01              46.944          -1.075e+02             229.330           4.000e+01     
 146.000         270.000           -1.167e+01          -1.167e+01              47.650          -1.076e+02             230.402           4.000e+01     
 145.000         270.000           -1.179e+01          -1.179e+01              48.395          -1.077e+02             231.450           4.000e+01     
 144.000         270.000           -1.192e+01          -1.192e+01              49.179          -1.077e+02             232.473           4.000e+01     
 143.000         270.000           -1.205e+01          -1.205e+01              50.004          -1.078e+02             233.471           4.000e+01     
 142.000         270.000           -1.217e+01          -1.217e+01              50.872          -1.079e+02             234.443           4.000e+01     
 141.000         270.000           -1.230e+01          -1.230e+01              51.783          -1.080e+02             235.388           4.000e+01     
 140.000         270.000           -1.243e+01          -1.243e+01              52.741          -1.081e+02             236.307           4.000e+01     
 139.000         270.000           -1.255e+01          -1.255e+01              53.745          -1.083e+02             237.198           4.000e+01     
 138.000         270.000           -1.268e+01          -1.268e+01              54.797          -1.084e+02             238.062           4.000e+01     
 137.000         270.000           -1.281e+01          -1.281e+01              55.898          -1.085e+02             238.897           4.000e+01     
 136.000         270.000           -1.293e+01          -1.293e+01              57.050          -1.086e+02             239.705           4.000e+01     
 135.000         270.000           -1.305e+01          -1.305e+01              58.254          -1.088e+02             240.483           4.000e+01     
 134.000         270.000           -1.317e+01          -1.317e+01              59.510          -1.089e+02             241.232           4.000e+01     
 133.000         270.000           -1.329e+01          -1.329e+01              60.818          -1.091e+02             241.951           4.000e+01     
 132.000         270.000           -1.340e+01          -1.340e+01              62.179          -1.092e+02             242.639           4.000e+01     
 131.000         270.000           -1.350e+01          -1.350e+01              63.594          -1.094e+02             243.297           4.000e+01     
 130.000         270.000           -1.361e+01          -1.361e+01              65.060          -1.096e+02             243.923           4.000e+01     
 129.000         270.000           -1.370e+01          -1.370e+01              66.578          -1.097e+02             244.516           4.000e+01     
 128.000         270.000           -1.379e+01          -1.379e+01              68.146          -1.099e+02             245.077           4.000e+01     
 127.000         270.000           -1.387e+01          -1.387e+01              69.762          -1.101e+02             245.602           4.000e+01     
 126.000         270.000           -1.395e+01          -1.395e+01              71.424          -1.103e+02             246.093           4.000e+01     
 125.000         270.000           -1.401e+01          -1.401e+01              73.129          -1.106e+02             246.546           4.000e+01     
 124.000         270.000           -1.407e+01          -1.407e+01              74.874          -1.108e+02             246.961           4.000e+01     
 123.000         270.000           -1.411e+01          -1.411e+01              76.654          -1.110e+02             247.335           4.000e+01     
 122.000         270.000           -1.415e+01          -1.415e+01              78.466          -1.113e+02             247.667           4.000e+01     
 121.000         270.000           -1.417e+01          -1.417e+01              80.304          -1.116e+02             247.954           4.000e+01     
 120.000         270.000           -1.418e+01          -1.418e+01              82.164          -1.119e+02             248.192           4.000e+01     
 119.000         270.000           -1.418e+01          -1.418e+01              84.038          -1.122e+02             248.379           4.000e+01     
 118.000         270.000           -1.417e+01          -1.417e+01              85.923          -1.125e+02             248.509           4.000e+01     
 117.000         270.000           -1.415e+01          -1.415e+01              87.812          -1.129e+02             248.577           4.000e+01     
 116.000         270.000           -1.411e+01          -1.411e+01              89.698          -1.132e+02             248.577           4.000e+01     
 115.000         270.000           -1.406e+01          -1.406e+01              91.576          -1.136e+02             248.501           4.000e+01     
 114.000         270.000           -1.400e+01          -1.400e+01              93.440          -1.141e+02             248.339           4.000e+01     
 113.000         270.000           -1.393e+01          -1.393e+01              95.284          -1.145e+02             248.080           4.000e+01     
 112.000         270.000           -1.385e+01          -1.385e+01              97.103          -1.150e+02             247.708           4.000e+01     
 111.000         270.000           -1.375e+01          -1.375e+01              98.893          -1.155e+02             247.205           4.000e+01     
 110.000         270.000           -1.365e+01          -1.365e+01             100.649          -1.161e+02             246.545           4.000e+01     
 109.000         270.000           -1.353e+01          -1.353e+01             102.367          -1.167e+02             245.698           4.000e+01     
 108.000         270.000           -1.341e+01          -1.341e+01             104.044          -1.173e+02             244.622           4.000e+01     
 107.000         270.000           -1.328e+01          -1.328e+01             105.676          -1.180e+02             243.262           4.000e+01     
 106.000         270.000           -1.314e+01          -1.314e+01             107.263          -1.188e+02             241.542           4.000e+01     
 105.000         270.000           -1.299e+01          -1.299e+01             108.801          -1.196e+02             239.357           4.000e+01     
 104.000         270.000           -1.284e+01          -1.284e+01             110.290          -1.205e+02             236.561           4.000e+01     
 103.000         270.000           -1.268e+01          -1.268e+01             111.728          -1.215e+02             232.944           4.000e+01     
 102.000         270.000           -1.251e+01          -1.251e+01             113.116          -1.226e+02             228.211           4.000e+01     
 101.000         270.000           -1.234e+01          -1.234e+01             114.454          -1.237e+02             221.948           4.000e+01     
 100.000         270.000           -1.217e+01          -1.217e+01             115.741          -1.248e+02             213.630           4.000e+01     
  99.000         270.000           -1.199e+01          -1.199e+01             116.978          -1.258e+02             202.752           4.000e+01     
  98.000         270.000           -1.181e+01          -1.181e+01             118.165          -1.266e+02             189.250           4.000e+01     
  97.000         270.000           -1.163e+01          -1.163e+01             119.305          -1.267e+02             174.126           4.000e+01     
  96.000         270.000           -1.144e+01          -1.144e+01             120.398          -1.263e+02             159.379           4.000e+01     
  95.000         270.000           -1.125e+01          -1.125e+01             121.445          -1.254e+02             146.741           4.000e+01     
  94.000         270.000           -1.106e+01          -1.106e+01             122.448          -1.242e+02             136.770           4.000e+01     
  93.000         270.000           -1.087e+01          -1.087e+01             123.408          -1.230e+02             129.167           4.000e+01     
  92.000         270.000           -1.068e+01          -1.068e+01             124.326          -1.219e+02             123.391           4.000e+01     
  91.000         270.000           -1.049e+01          -1.049e+01             125.205          -1.208e+02             118.951           4.000e+01     
  90.000         270.000           -1.030e+01          -1.030e+01             126.045          -1.198e+02             115.480           4.000e+01     
  89.000         270.000           -1.011e+01          -1.011e+01             126.849          -1.188e+02             112.717           4.000e+01     
  88.000         270.000           -9.918e+00          -9.918e+00             127.618          -1.180e+02             110.477           4.000e+01     
  87.000         270.000           -9.728e+00          -9.728e+00             128.352          -1.172e+02             108.632           4.000e+01     
  86.000         270.000           -9.538e+00          -9.538e+00             129.055          -1.165e+02             107.088           4.000e+01     
  85.000         270.000           -9.349e+00          -9.349e+00             129.727          -1.158e+02             105.778           4.000e+01     
  84.000         270.000           -9.160e+00          -9.160e+00             130.369          -1.151e+02             104.653           4.000e+01     
  83.000         270.000           -8.973e+00          -8.973e+00             130.983          -1.146e+02             103.673           4.000e+01     
  82.000         270.000           -8.787e+00          -8.787e+00             131.571          -1.140e+02             102.812           4.000e+01     
  81.000         270.000           -8.602e+00          -8.602e+00             132.133          -1.135e+02             102.045           4.000e+01     
  80.000         270.000           -8.418e+00          -8.418e+00             132.670          -1.130e+02             101.357           4.000e+01     
  79.000         270.000           -8.235e+00          -8.235e+00             133.185          -1.125e+02             100.732           4.000e+01     
  78.000         270.000           -8.055e+00          -8.055e+00             133.677          -1.121e+02             100.159           4.000e+01     
  77.000         270.000           -7.875e+00          -7.875e+00             134.148          -1.117e+02              99.629           4.000e+01     
  76.000         270.000           -7.697e+00          -7.697e+00             134.599          -1.113e+02              99.135           4.000e+01     
  75.000         270.000           -7.521e+00          -7.521e+00             135.031          -1.109e+02              98.671           4.000e+01     
  74.000         270.000           -7.347e+00          -7.347e+00             135.445          -1.106e+02              98.230           4.000e+01     
  73.000         270.000           -7.174e+00          -7.174e+00             135.842          -1.102e+02              97.810           4.000e+01     
  72.000         270.000           -7.003e+00          -7.003e+00             136.222          -1.099e+02              97.405           4.000e+01     
  71.000         270.000           -6.833e+00          -6.833e+00             136.586          -1.096e+02              97.013           4.000e+01     
  70.000         270.000           -6.666e+00          -6.666e+00             136.935          -1.093e+02              96.631           4.000e+01     
  69.000         270.000           -6.500e+00          -6.500e+00             137.269          -1.090e+02              96.256           4.000e+01     
  68.000         270.000           -6.336e+00          -6.336e+00             137.590          -1.087e+02              95.888           4.000e+01     
  67.000         270.000           -6.174e+00          -6.174e+00             137.898          -1.085e+02              95.523           4.000e+01     
  66.000         270.000           -6.014e+00          -6.014e+00             138.193          -1.082e+02              95.160           4.000e+01     
  65.000         270.000           -5.856e+00          -5.856e+00             138.477          -1.080e+02              94.798           4.000e+01     
  64.000         270.000           -5.700e+00          -5.700e+00             138.749          -1.078e+02              94.435           4.000e+01     
  63.000         270.000           -5.546e+00          -5.546e+00             139.010          -1.076e+02              94.070           4.000e+01     
  62.000         270.000           -5.394e+00          -5.394e+00             139.260          -1.074e+02              93.703           4.000e+01     
  61.000         270.000           -5.244e+00          -5.244e+00             139.500          -1.072e+02              93.333           4.000e+01     
  60.000         270.000           -5.095e+00          -5.095e+00             139.731          -1.070e+02              92.957           4.000e+01     
  59.000         270.000           -4.949e+00          -4.949e+00             139.953          -1.068e+02              92.577           4.000e+01     
  58.000         270.000           -4.805e+00          -4.805e+00             140.165          -1.066e+02              92.191           4.000e+01     
  57.000         270.000           -4.664e+00          -4.664e+00             140.369          -1.065e+02              91.798           4.000e+01     
  56.000         270.000           -4.524e+00          -4.524e+00             140.565          -1.063e+02              91.398           4.000e+01     
  55.000         270.000           -4.386e+00          -4.386e+00             140.753          -1.062e+02              90.990           4.000e+01     
  54.000         270.000           -4.251e+00          -4.251e+00             140.934          -1.060e+02              90.574           4.000e+01     
  53.000         270.000           -4.117e+00          -4.117e+00             141.107          -1.059e+02              90.149           4.000e+01     
  52.000         270.000           -3.986e+00          -3.986e+00             141.273          -1.058e+02              89.715           4.000e+01     
  51.000         270.000           -3.857e+00          -3.857e+00             141.432          -1.056e+02              89.271           4.000e+01     
  50.000         270.000           -3.730e+00          -3.730e+00             141.585          -1.055e+02              88.818           4.000e+01     
  49.000         270.000           -3.606e+00          -3.606e+00             141.731          -1.054e+02              88.353           4.000e+01     
  48.000         270.000           -3.483e+00          -3.483e+00             141.871          -1.053e+02              87.878           4.000e+01     
  47.000         270.000           -3.363e+00          -3.363e+00             142.006          -1.052e+02              87.392           4.000e+01     
  46.000         270.000           -3.246e+00          -3.246e+00             142.134          -1.051e+02              86.894           4.000e+01     
  45.000         270.000           -3.130e+00          -3.130e+00             142.257          -1.050e+02              86.385           4.000e+01     
  44.000         270.000           -3.017e+00          -3.017e+00             142.375          -1.049e+02              85.863           4.000e+01     
  43.000         270.000           -2.906e+00          -2.906e+00             142.487          -1.048e+02              85.328           4.000e+01     
  42.000         270.000           -2.798e+00          -2.798e+00             142.594          -1.048e+02              84.781           4.000e+01     
  41.000         270.000           -2.691e+00          -2.691e+00             142.697          -1.047e+02              84.221           4.000e+01     
  40.000         270.000           -2.588e+00          -2.588e+00             142.794          -1.046e+02              83.647           4.000e+01     
  39.000         270.000           -2.486e+00          -2.486e+00             142.887          -1.046e+02              83.059           4.000e+01     
  38.000         270.000           -2.387e+00          -2.387e+00             142.975          -1.045e+02              82.458           4.000e+01     
  37.000         270.000           -2.291e+00          -2.291e+00             143.059          -1.045e+02              81.842           4.000e+01     
  36.000         270.000           -2.197e+00          -2.197e+00             143.138          -1.044e+02              81.211           4.000e+01     
  35.000         270.000           -2.105e+00          -2.105e+00             143.213          -1.044e+02              80.566           4.000e+01     
  34.000         270.000           -2.016e+00          -2.016e+00             143.284          -1.044e+02              79.906           4.000e+01     
  33.000         270.000           -1.929e+00          -1.929e+00             143.351          -1.043e+02              79.230           4.000e+01     
  32.000         270.000           -1.845e+00          -1.845e+00             143.414          -1.043e+02              78.539           4.000e+01     
  31.000         270.000           -1.763e+00          -1.763e+00             143.474          -1.043e+02              77.832           4.000e+01     
  30.000         270.000           -1.684e+00          -1.684e+00             143.529          -1.042e+02              77.110           4.000e+01     
  29.000         270.000           -1.608e+00          -1.608e+00             143.580          -1.042e+02              76.371           4.000e+01     
  28.000         270.000           -1.534e+00          -1.534e+00             143.628          -1.042e+02              75.616           4.000e+01     
  27.000         270.000           -1.462e+00          -1.462e+00             143.673          -1.042e+02              74.844           4.000e+01     
  26.000         270.000           -1.393e+00          -1.393e+00             143.714          -1.042e+02              74.057           4.000e+01     
  25.000         270.000           -1.327e+00          -1.327e+00             143.751          -1.042e+02              73.252           4.000e+01     
  24.000         270.000           -1.264e+00          -1.264e+00             143.785          -1.042e+02              72.431           4.000e+01     
  23.000         270.000           -1.203e+00          -1.203e+00             143.815          -1.042e+02              71.592           4.000e+01     
  22.000         270.000           -1.144e+00          -1.144e+00             143.843          -1.042e+02              70.737           4.000e+01     
  21.000         270.000           -1.088e+00          -1.088e+00             143.867          -1.042e+02              69.865           4.000e+01     
  20.000         270.000           -1.035e+00          -1.035e+00             143.888          -1.042e+02              68.976           4.000e+01     
  19.000         270.000           -9.850e-01          -9.850e-01             143.905          -1.042e+02              68.070           4.000e+01     
  18.000         270.000           -9.374e-01          -9.374e-01             143.920          -1.042e+02              67.148           4.000e+01     
  17.000         270.000           -8.924e-01          -8.924e-01             143.931          -1.043e+02              66.208           4.000e+01     
  16.000         270.000           -8.501e-01          -8.501e-01             143.940          -1.043e+02              65.252           4.000e+01     
  15.000         270.000           -8.105e-01          -8.105e-01             143.945          -1.043e+02              64.280           4.000e+01     
  14.000         270.000           -7.737e-01          -7.737e-01             143.948          -1.043e+02              63.291           4.000e+01     
  13.000         270.000           -7.396e-01          -7.396e-01             143.947          -1.043e+02              62.286           4.000e+01     
  12.000         270.000           -7.082e-01          -7.082e-01             143.944          -1.044e+02              61.266           4.000e+01     
  11.000         270.000           -6.795e-01          -6.795e-01             143.938          -1.044e+02              60.230           4.000e+01     
  10.000         270.000           -6.536e-01          -6.536e-01             143.929          -1.044e+02              59.179           4.000e+01     
   9.000         270.000           -6.305e-01          -6.305e-01             143.917          -1.045e+02              58.114           4.000e+01     
   8.000         270.000           -6.101e-01          -6.101e-01             143.902          -1.045e+02              57.035           4.000e+01     
   7.000         270.000           -5.925e-01          -5.925e-01             143.885          -1.045e+02              55.942           4.000e+01     
   6.000         270.000           -5.777e-01          -5.777e-01             143.865          -1.046e+02              54.836           4.000e+01     
   5.000         270.000           -5.656e-01          -5.656e-01             143.842          -1.046e+02              53.717           4.000e+01     
   4.000         270.000           -5.563e-01          -5.563e-01             143.816          -1.046e+02              52.587           4.000e+01     
   3.000         270.000           -5.497e-01          -5.497e-01             143.788          -1.047e+02              51.446           4.000e+01     
   2.000         270.000           -5.460e-01          -5.460e-01             143.757          -1.047e+02              50.295           4.000e+01     
   1.000         270.000           -5.450e-01          -5.450e-01             143.723          -1.048e+02              49.135           4.000e+01     
