Theta [deg.]  Phi   [deg.]  Abs(Gain)[dBi   ]   Abs(Theta)[dBi   ]  Phase(Theta)[deg.]  Abs(Phi  )[dBi   ]  Phase(Phi  )[deg.]  Ax.Ratio[dB    ]    
------------------------------------------------------------------------------------------------------------------------------------------------------
   0.000          90.000           -7.279e-01          -7.279e-01              85.954          -1.045e+02             348.104           4.000e+01     
   1.000          90.000           -7.326e-01          -7.326e-01              85.914          -1.046e+02             346.985           4.000e+01     
   2.000          90.000           -7.401e-01          -7.401e-01              85.872          -1.046e+02             345.859           4.000e+01     
   3.000          90.000           -7.503e-01          -7.503e-01              85.828          -1.046e+02             344.729           4.000e+01     
   4.000          90.000           -7.633e-01          -7.633e-01              85.781          -1.047e+02             343.595           4.000e+01     
   5.000          90.000           -7.791e-01          -7.791e-01              85.731          -1.047e+02             342.459           4.000e+01     
   6.000          90.000           -7.975e-01          -7.975e-01              85.678          -1.048e+02             341.320           4.000e+01     
   7.000          90.000           -8.188e-01          -8.188e-01              85.623          -1.048e+02             340.182           4.000e+01     
   8.000          90.000           -8.427e-01          -8.427e-01              85.565          -1.048e+02             339.043           4.000e+01     
   9.000          90.000           -8.694e-01          -8.694e-01              85.505          -1.049e+02             337.906           4.000e+01     
  10.000          90.000           -8.988e-01          -8.988e-01              85.442          -1.049e+02             336.770           4.000e+01     
  11.000          90.000           -9.309e-01          -9.309e-01              85.376          -1.050e+02             335.638           4.000e+01     
  12.000          90.000           -9.658e-01          -9.658e-01              85.308          -1.050e+02             334.510           4.000e+01     
  13.000          90.000           -1.003e+00          -1.003e+00              85.236          -1.051e+02             333.388           4.000e+01     
  14.000          90.000           -1.043e+00          -1.043e+00              85.163          -1.051e+02             332.271           4.000e+01     
  15.000          90.000           -1.086e+00          -1.086e+00              85.086          -1.052e+02             331.161           4.000e+01     
  16.000          90.000           -1.132e+00          -1.132e+00              85.007          -1.052e+02             330.059           4.000e+01     
  17.000          90.000           -1.180e+00          -1.180e+00              84.924          -1.053e+02             328.966           4.000e+01     
  18.000          90.000           -1.231e+00          -1.231e+00              84.839          -1.053e+02             327.882           4.000e+01     
  19.000          90.000           -1.284e+00          -1.284e+00              84.752          -1.054e+02             326.809           4.000e+01     
  20.000          90.000           -1.341e+00          -1.341e+00              84.661          -1.054e+02             325.748           4.000e+01     
  21.000          90.000           -1.399e+00          -1.399e+00              84.568          -1.055e+02             324.698           4.000e+01     
  22.000          90.000           -1.461e+00          -1.461e+00              84.471          -1.055e+02             323.661           4.000e+01     
  23.000          90.000           -1.524e+00          -1.524e+00              84.372          -1.056e+02             322.638           4.000e+01     
  24.000          90.000           -1.591e+00          -1.591e+00              84.269          -1.057e+02             321.630           4.000e+01     
  25.000          90.000           -1.660e+00          -1.660e+00              84.163          -1.057e+02             320.636           4.000e+01     
  26.000          90.000           -1.731e+00          -1.731e+00              84.055          -1.058e+02             319.658           4.000e+01     
  27.000          90.000           -1.805e+00          -1.805e+00              83.943          -1.059e+02             318.696           4.000e+01     
  28.000          90.000           -1.882e+00          -1.882e+00              83.828          -1.059e+02             317.751           4.000e+01     
  29.000          90.000           -1.961e+00          -1.961e+00              83.709          -1.060e+02             316.824           4.000e+01     
  30.000          90.000           -2.042e+00          -2.042e+00              83.587          -1.061e+02             315.914           4.000e+01     
  31.000          90.000           -2.126e+00          -2.126e+00              83.462          -1.062e+02             315.023           4.000e+01     
  32.000          90.000           -2.212e+00          -2.212e+00              83.333          -1.063e+02             314.151           4.000e+01     
  33.000          90.000           -2.301e+00          -2.301e+00              83.200          -1.064e+02             313.299           4.000e+01     
  34.000          90.000           -2.392e+00          -2.392e+00              83.064          -1.064e+02             312.466           4.000e+01     
  35.000          90.000           -2.485e+00          -2.485e+00              82.923          -1.065e+02             311.655           4.000e+01     
  36.000          90.000           -2.581e+00          -2.581e+00              82.779          -1.066e+02             310.864           4.000e+01     
  37.000          90.000           -2.679e+00          -2.679e+00              82.631          -1.068e+02             310.094           4.000e+01     
  38.000          90.000           -2.779e+00          -2.779e+00              82.478          -1.069e+02             309.347           4.000e+01     
  39.000          90.000           -2.882e+00          -2.882e+00              82.321          -1.070e+02             308.622           4.000e+01     
  40.000          90.000           -2.986e+00          -2.986e+00              82.159          -1.071e+02             307.920           4.000e+01     
  41.000          90.000           -3.093e+00          -3.093e+00              81.993          -1.072e+02             307.241           4.000e+01     
  42.000          90.000           -3.202e+00          -3.202e+00              81.822          -1.074e+02             306.587           4.000e+01     
  43.000          90.000           -3.314e+00          -3.314e+00              81.646          -1.075e+02             305.957           4.000e+01     
  44.000          90.000           -3.427e+00          -3.427e+00              81.465          -1.077e+02             305.353           4.000e+01     
  45.000          90.000           -3.543e+00          -3.543e+00              81.278          -1.078e+02             304.775           4.000e+01     
  46.000          90.000           -3.660e+00          -3.660e+00              81.086          -1.080e+02             304.223           4.000e+01     
  47.000          90.000           -3.780e+00          -3.780e+00              80.888          -1.081e+02             303.700           4.000e+01     
  48.000          90.000           -3.901e+00          -3.901e+00              80.683          -1.083e+02             303.205           4.000e+01     
  49.000          90.000           -4.025e+00          -4.025e+00              80.473          -1.085e+02             302.739           4.000e+01     
  50.000          90.000           -4.150e+00          -4.150e+00              80.256          -1.087e+02             302.305           4.000e+01     
  51.000          90.000           -4.278e+00          -4.278e+00              80.032          -1.089e+02             301.903           4.000e+01     
  52.000          90.000           -4.407e+00          -4.407e+00              79.801          -1.091e+02             301.535           4.000e+01     
  53.000          90.000           -4.539e+00          -4.539e+00              79.562          -1.093e+02             301.202           4.000e+01     
  54.000          90.000           -4.672e+00          -4.672e+00              79.316          -1.096e+02             300.907           4.000e+01     
  55.000          90.000           -4.807e+00          -4.807e+00              79.061          -1.098e+02             300.652           4.000e+01     
  56.000          90.000           -4.943e+00          -4.943e+00              78.799          -1.101e+02             300.440           4.000e+01     
  57.000          90.000           -5.082e+00          -5.082e+00              78.527          -1.103e+02             300.273           4.000e+01     
  58.000          90.000           -5.222e+00          -5.222e+00              78.246          -1.106e+02             300.155           4.000e+01     
  59.000          90.000           -5.364e+00          -5.364e+00              77.955          -1.109e+02             300.091           4.000e+01     
  60.000          90.000           -5.507e+00          -5.507e+00              77.654          -1.112e+02             300.086           4.000e+01     
  61.000          90.000           -5.652e+00          -5.652e+00              77.343          -1.116e+02             300.144           4.000e+01     
  62.000          90.000           -5.798e+00          -5.798e+00              77.021          -1.119e+02             300.273           4.000e+01     
  63.000          90.000           -5.946e+00          -5.946e+00              76.687          -1.123e+02             300.482           4.000e+01     
  64.000          90.000           -6.096e+00          -6.096e+00              76.341          -1.127e+02             300.780           4.000e+01     
  65.000          90.000           -6.247e+00          -6.247e+00              75.982          -1.131e+02             301.180           4.000e+01     
  66.000          90.000           -6.399e+00          -6.399e+00              75.610          -1.136e+02             301.696           4.000e+01     
  67.000          90.000           -6.552e+00          -6.552e+00              75.224          -1.140e+02             302.346           4.000e+01     
  68.000          90.000           -6.707e+00          -6.707e+00              74.824          -1.145e+02             303.152           4.000e+01     
  69.000          90.000           -6.863e+00          -6.863e+00              74.408          -1.151e+02             304.145           4.000e+01     
  70.000          90.000           -7.020e+00          -7.020e+00              73.977          -1.156e+02             305.358           4.000e+01     
  71.000          90.000           -7.179e+00          -7.179e+00              73.529          -1.163e+02             306.838           4.000e+01     
  72.000          90.000           -7.338e+00          -7.338e+00              73.064          -1.169e+02             308.644           4.000e+01     
  73.000          90.000           -7.498e+00          -7.498e+00              72.581          -1.176e+02             310.853           4.000e+01     
  74.000          90.000           -7.659e+00          -7.659e+00              72.079          -1.183e+02             313.564           4.000e+01     
  75.000          90.000           -7.821e+00          -7.821e+00              71.557          -1.191e+02             316.908           4.000e+01     
  76.000          90.000           -7.983e+00          -7.983e+00              71.014          -1.200e+02             321.049           4.000e+01     
  77.000          90.000           -8.147e+00          -8.147e+00              70.451          -1.208e+02             326.192           4.000e+01     
  78.000          90.000           -8.310e+00          -8.310e+00              69.864          -1.216e+02             332.565           4.000e+01     
  79.000          90.000           -8.474e+00          -8.474e+00              69.255          -1.224e+02             340.371           4.000e+01     
  80.000          90.000           -8.638e+00          -8.638e+00              68.621          -1.231e+02             349.680           4.000e+01     
  81.000          90.000           -8.803e+00          -8.803e+00              67.962          -1.234e+02               0.265           4.000e+01     
  82.000          90.000           -8.967e+00          -8.967e+00              67.277          -1.235e+02              11.502           4.000e+01     
  83.000          90.000           -9.131e+00          -9.131e+00              66.565          -1.232e+02              22.515           4.000e+01     
  84.000          90.000           -9.295e+00          -9.295e+00              65.825          -1.227e+02              32.522           4.000e+01     
  85.000          90.000           -9.459e+00          -9.459e+00              65.055          -1.219e+02              41.112           4.000e+01     
  86.000          90.000           -9.621e+00          -9.621e+00              64.256          -1.210e+02              48.233           4.000e+01     
  87.000          90.000           -9.783e+00          -9.783e+00              63.425          -1.202e+02              54.044           4.000e+01     
  88.000          90.000           -9.944e+00          -9.944e+00              62.563          -1.193e+02              58.770           4.000e+01     
  89.000          90.000           -1.010e+01          -1.010e+01              61.668          -1.184e+02              62.630           4.000e+01     
  90.000          90.000           -1.026e+01          -1.026e+01              60.739          -1.176e+02              65.808           4.000e+01     
  91.000          90.000           -1.042e+01          -1.042e+01              59.776          -1.169e+02              68.450           4.000e+01     
  92.000          90.000           -1.057e+01          -1.057e+01              58.778          -1.162e+02              70.669           4.000e+01     
  93.000          90.000           -1.072e+01          -1.072e+01              57.744          -1.155e+02              72.553           4.000e+01     
  94.000          90.000           -1.087e+01          -1.087e+01              56.674          -1.149e+02              74.168           4.000e+01     
  95.000          90.000           -1.102e+01          -1.102e+01              55.567          -1.143e+02              75.566           4.000e+01     
  96.000          90.000           -1.116e+01          -1.116e+01              54.424          -1.137e+02              76.788           4.000e+01     
  97.000          90.000           -1.130e+01          -1.130e+01              53.245          -1.132e+02              77.864           4.000e+01     
  98.000          90.000           -1.143e+01          -1.143e+01              52.029          -1.127e+02              78.820           4.000e+01     
  99.000          90.000           -1.156e+01          -1.156e+01              50.776          -1.123e+02              79.677           4.000e+01     
 100.000          90.000           -1.168e+01          -1.168e+01              49.489          -1.118e+02              80.451           4.000e+01     
 101.000          90.000           -1.180e+01          -1.180e+01              48.166          -1.114e+02              81.155           4.000e+01     
 102.000          90.000           -1.192e+01          -1.192e+01              46.810          -1.110e+02              81.800           4.000e+01     
 103.000          90.000           -1.202e+01          -1.202e+01              45.422          -1.106e+02              82.395           4.000e+01     
 104.000          90.000           -1.213e+01          -1.213e+01              44.003          -1.103e+02              82.949           4.000e+01     
 105.000          90.000           -1.222e+01          -1.222e+01              42.555          -1.099e+02              83.467           4.000e+01     
 106.000          90.000           -1.231e+01          -1.231e+01              41.081          -1.096e+02              83.955           4.000e+01     
 107.000          90.000           -1.239e+01          -1.239e+01              39.582          -1.093e+02              84.418           4.000e+01     
 108.000          90.000           -1.246e+01          -1.246e+01              38.062          -1.090e+02              84.859           4.000e+01     
 109.000          90.000           -1.252e+01          -1.252e+01              36.524          -1.087e+02              85.282           4.000e+01     
 110.000          90.000           -1.258e+01          -1.258e+01              34.970          -1.084e+02              85.691           4.000e+01     
 111.000          90.000           -1.262e+01          -1.262e+01              33.404          -1.082e+02              86.087           4.000e+01     
 112.000          90.000           -1.266e+01          -1.266e+01              31.829          -1.079e+02              86.474           4.000e+01     
 113.000          90.000           -1.269e+01          -1.269e+01              30.249          -1.077e+02              86.852           4.000e+01     
 114.000          90.000           -1.271e+01          -1.271e+01              28.668          -1.074e+02              87.224           4.000e+01     
 115.000          90.000           -1.272e+01          -1.272e+01              27.089          -1.072e+02              87.592           4.000e+01     
 116.000          90.000           -1.273e+01          -1.273e+01              25.516          -1.070e+02              87.956           4.000e+01     
 117.000          90.000           -1.272e+01          -1.272e+01              23.952          -1.068e+02              88.319           4.000e+01     
 118.000          90.000           -1.271e+01          -1.271e+01              22.400          -1.066e+02              88.681           4.000e+01     
 119.000          90.000           -1.269e+01          -1.269e+01              20.865          -1.064e+02              89.044           4.000e+01     
 120.000          90.000           -1.266e+01          -1.266e+01              19.349          -1.063e+02              89.408           4.000e+01     
 121.000          90.000           -1.263e+01          -1.263e+01              17.855          -1.061e+02              89.774           4.000e+01     
 122.000          90.000           -1.258e+01          -1.258e+01              16.385          -1.059e+02              90.143           4.000e+01     
 123.000          90.000           -1.253e+01          -1.253e+01              14.943          -1.058e+02              90.516           4.000e+01     
 124.000          90.000           -1.248e+01          -1.248e+01              13.530          -1.056e+02              90.893           4.000e+01     
 125.000          90.000           -1.242e+01          -1.242e+01              12.148          -1.055e+02              91.276           4.000e+01     
 126.000          90.000           -1.235e+01          -1.235e+01              10.798          -1.054e+02              91.664           4.000e+01     
 127.000          90.000           -1.228e+01          -1.228e+01               9.483          -1.052e+02              92.058           4.000e+01     
 128.000          90.000           -1.221e+01          -1.221e+01               8.203          -1.051e+02              92.459           4.000e+01     
 129.000          90.000           -1.213e+01          -1.213e+01               6.959          -1.050e+02              92.868           4.000e+01     
 130.000          90.000           -1.204e+01          -1.204e+01               5.751          -1.049e+02              93.284           4.000e+01     
 131.000          90.000           -1.196e+01          -1.196e+01               4.580          -1.048e+02              93.708           4.000e+01     
 132.000          90.000           -1.187e+01          -1.187e+01               3.447          -1.047e+02              94.142           4.000e+01     
 133.000          90.000           -1.178e+01          -1.178e+01               2.351          -1.046e+02              94.584           4.000e+01     
 134.000          90.000           -1.169e+01          -1.169e+01               1.291          -1.045e+02              95.035           4.000e+01     
 135.000          90.000           -1.159e+01          -1.159e+01               0.269          -1.044e+02              95.497           4.000e+01     
 136.000          90.000           -1.150e+01          -1.150e+01             359.283          -1.044e+02              95.969           4.000e+01     
 137.000          90.000           -1.140e+01          -1.140e+01             358.333          -1.043e+02              96.451           4.000e+01     
 138.000          90.000           -1.131e+01          -1.131e+01             357.418          -1.042e+02              96.944           4.000e+01     
 139.000          90.000           -1.121e+01          -1.121e+01             356.538          -1.042e+02              97.449           4.000e+01     
 140.000          90.000           -1.112e+01          -1.112e+01             355.691          -1.041e+02              97.965           4.000e+01     
 141.000          90.000           -1.102e+01          -1.102e+01             354.878          -1.040e+02              98.494           4.000e+01     
 142.000          90.000           -1.093e+01          -1.093e+01             354.097          -1.040e+02              99.034           4.000e+01     
 143.000          90.000           -1.083e+01          -1.083e+01             353.348          -1.040e+02              99.588           4.000e+01     
 144.000          90.000           -1.074e+01          -1.074e+01             352.629          -1.039e+02             100.154           4.000e+01     
 145.000          90.000           -1.065e+01          -1.065e+01             351.940          -1.039e+02             100.734           4.000e+01     
 146.000          90.000           -1.056e+01          -1.056e+01             351.280          -1.038e+02             101.327           4.000e+01     
 147.000          90.000           -1.047e+01          -1.047e+01             350.648          -1.038e+02             101.934           4.000e+01     
 148.000          90.000           -1.038e+01          -1.038e+01             350.043          -1.038e+02             102.556           4.000e+01     
 149.000          90.000           -1.030e+01          -1.030e+01             349.465          -1.038e+02             103.192           4.000e+01     
 150.000          90.000           -1.022e+01          -1.022e+01             348.912          -1.038e+02             103.842           4.000e+01     
 151.000          90.000           -1.014e+01          -1.014e+01             348.384          -1.038e+02             104.508           4.000e+01     
 152.000          90.000           -1.006e+01          -1.006e+01             347.881          -1.038e+02             105.190           4.000e+01     
 153.000          90.000           -9.985e+00          -9.985e+00             347.400          -1.037e+02             105.887           4.000e+01     
 154.000          90.000           -9.913e+00          -9.913e+00             346.942          -1.038e+02             106.600           4.000e+01     
 155.000          90.000           -9.843e+00          -9.843e+00             346.506          -1.038e+02             107.329           4.000e+01     
 156.000          90.000           -9.776e+00          -9.776e+00             346.091          -1.038e+02             108.074           4.000e+01     
 157.000          90.000           -9.711e+00          -9.711e+00             345.697          -1.038e+02             108.837           4.000e+01     
 158.000          90.000           -9.650e+00          -9.650e+00             345.323          -1.038e+02             109.616           4.000e+01     
 159.000          90.000           -9.592e+00          -9.592e+00             344.968          -1.038e+02             110.412           4.000e+01     
 160.000          90.000           -9.537e+00          -9.537e+00             344.633          -1.038e+02             111.226           4.000e+01     
 161.000          90.000           -9.484e+00          -9.484e+00             344.315          -1.039e+02             112.057           4.000e+01     
 162.000          90.000           -9.435e+00          -9.435e+00             344.016          -1.039e+02             112.905           4.000e+01     
 163.000          90.000           -9.390e+00          -9.390e+00             343.734          -1.039e+02             113.771           4.000e+01     
 164.000          90.000           -9.347e+00          -9.347e+00             343.469          -1.039e+02             114.655           4.000e+01     
 165.000          90.000           -9.308e+00          -9.308e+00             343.221          -1.040e+02             115.557           4.000e+01     
 166.000          90.000           -9.272e+00          -9.272e+00             342.989          -1.040e+02             116.477           4.000e+01     
 167.000          90.000           -9.239e+00          -9.239e+00             342.773          -1.041e+02             117.415           4.000e+01     
 168.000          90.000           -9.210e+00          -9.210e+00             342.572          -1.041e+02             118.370           4.000e+01     
 169.000          90.000           -9.184e+00          -9.184e+00             342.387          -1.041e+02             119.344           4.000e+01     
 170.000          90.000           -9.161e+00          -9.161e+00             342.217          -1.042e+02             120.335           4.000e+01     
 171.000          90.000           -9.143e+00          -9.143e+00             342.062          -1.042e+02             121.343           4.000e+01     
 172.000          90.000           -9.127e+00          -9.127e+00             341.922          -1.043e+02             122.369           4.000e+01     
 173.000          90.000           -9.115e+00          -9.115e+00             341.796          -1.043e+02             123.412           4.000e+01     
 174.000          90.000           -9.107e+00          -9.107e+00             341.685          -1.044e+02             124.472           4.000e+01     
 175.000          90.000           -9.102e+00          -9.102e+00             341.588          -1.044e+02             125.548           4.000e+01     
 176.000          90.000           -9.100e+00          -9.100e+00             341.505          -1.045e+02             126.640           4.000e+01     
 177.000          90.000           -9.102e+00          -9.102e+00             341.436          -1.046e+02             127.748           4.000e+01     
 178.000          90.000           -9.108e+00          -9.108e+00             341.381          -1.046e+02             128.870           4.000e+01     
 179.000          90.000           -9.117e+00          -9.117e+00             341.340          -1.047e+02             130.007           4.000e+01     
 180.000          90.000           -9.130e+00          -9.130e+00             341.313          -1.047e+02             131.156           4.000e+01     
 179.000         270.000           -9.147e+00          -9.147e+00             161.301          -1.048e+02             312.320           4.000e+01     
 178.000         270.000           -9.167e+00          -9.167e+00             161.302          -1.048e+02             313.496           4.000e+01     
 177.000         270.000           -9.190e+00          -9.190e+00             161.318          -1.049e+02             314.684           4.000e+01     
 176.000         270.000           -9.217e+00          -9.217e+00             161.348          -1.050e+02             315.882           4.000e+01     
 175.000         270.000           -9.248e+00          -9.248e+00             161.393          -1.050e+02             317.090           4.000e+01     
 174.000         270.000           -9.282e+00          -9.282e+00             161.452          -1.051e+02             318.307           4.000e+01     
 173.000         270.000           -9.320e+00          -9.320e+00             161.527          -1.052e+02             319.531           4.000e+01     
 172.000         270.000           -9.362e+00          -9.362e+00             161.616          -1.052e+02             320.761           4.000e+01     
 171.000         270.000           -9.407e+00          -9.407e+00             161.721          -1.053e+02             321.997           4.000e+01     
 170.000         270.000           -9.455e+00          -9.455e+00             161.841          -1.053e+02             323.238           4.000e+01     
 169.000         270.000           -9.507e+00          -9.507e+00             161.978          -1.054e+02             324.481           4.000e+01     
 168.000         270.000           -9.563e+00          -9.563e+00             162.131          -1.055e+02             325.726           4.000e+01     
 167.000         270.000           -9.622e+00          -9.622e+00             162.300          -1.055e+02             326.972           4.000e+01     
 166.000         270.000           -9.684e+00          -9.684e+00             162.488          -1.056e+02             328.217           4.000e+01     
 165.000         270.000           -9.750e+00          -9.750e+00             162.692          -1.057e+02             329.460           4.000e+01     
 164.000         270.000           -9.820e+00          -9.820e+00             162.915          -1.057e+02             330.700           4.000e+01     
 163.000         270.000           -9.892e+00          -9.892e+00             163.157          -1.058e+02             331.936           4.000e+01     
 162.000         270.000           -9.968e+00          -9.968e+00             163.419          -1.059e+02             333.166           4.000e+01     
 161.000         270.000           -1.005e+01          -1.005e+01             163.700          -1.059e+02             334.389           4.000e+01     
 160.000         270.000           -1.013e+01          -1.013e+01             164.002          -1.060e+02             335.604           4.000e+01     
 159.000         270.000           -1.022e+01          -1.022e+01             164.325          -1.061e+02             336.809           4.000e+01     
 158.000         270.000           -1.031e+01          -1.031e+01             164.671          -1.061e+02             338.005           4.000e+01     
 157.000         270.000           -1.040e+01          -1.040e+01             165.040          -1.062e+02             339.188           4.000e+01     
 156.000         270.000           -1.049e+01          -1.049e+01             165.433          -1.063e+02             340.359           4.000e+01     
 155.000         270.000           -1.059e+01          -1.059e+01             165.851          -1.063e+02             341.516           4.000e+01     
 154.000         270.000           -1.069e+01          -1.069e+01             166.294          -1.064e+02             342.659           4.000e+01     
 153.000         270.000           -1.079e+01          -1.079e+01             166.764          -1.065e+02             343.786           4.000e+01     
 152.000         270.000           -1.090e+01          -1.090e+01             167.263          -1.065e+02             344.896           4.000e+01     
 151.000         270.000           -1.101e+01          -1.101e+01             167.790          -1.066e+02             345.989           4.000e+01     
 150.000         270.000           -1.112e+01          -1.112e+01             168.348          -1.067e+02             347.064           4.000e+01     
 149.000         270.000           -1.123e+01          -1.123e+01             168.936          -1.068e+02             348.121           4.000e+01     
 148.000         270.000           -1.135e+01          -1.135e+01             169.558          -1.069e+02             349.157           4.000e+01     
 147.000         270.000           -1.147e+01          -1.147e+01             170.214          -1.069e+02             350.173           4.000e+01     
 146.000         270.000           -1.159e+01          -1.159e+01             170.905          -1.070e+02             351.169           4.000e+01     
 145.000         270.000           -1.171e+01          -1.171e+01             171.632          -1.071e+02             352.142           4.000e+01     
 144.000         270.000           -1.183e+01          -1.183e+01             172.398          -1.072e+02             353.094           4.000e+01     
 143.000         270.000           -1.195e+01          -1.195e+01             173.203          -1.073e+02             354.024           4.000e+01     
 142.000         270.000           -1.208e+01          -1.208e+01             174.049          -1.074e+02             354.930           4.000e+01     
 141.000         270.000           -1.220e+01          -1.220e+01             174.937          -1.075e+02             355.813           4.000e+01     
 140.000         270.000           -1.233e+01          -1.233e+01             175.869          -1.076e+02             356.672           4.000e+01     
 139.000         270.000           -1.245e+01          -1.245e+01             176.845          -1.078e+02             357.506           4.000e+01     
 138.000         270.000           -1.257e+01          -1.257e+01             177.868          -1.079e+02             358.316           4.000e+01     
 137.000         270.000           -1.270e+01          -1.270e+01             178.938          -1.080e+02             359.101           4.000e+01     
 136.000         270.000           -1.282e+01          -1.282e+01             180.057          -1.081e+02             359.859           4.000e+01     
 135.000         270.000           -1.294e+01          -1.294e+01             181.225          -1.083e+02               0.592           4.000e+01     
 134.000         270.000           -1.305e+01          -1.305e+01             182.442          -1.084e+02               1.298           4.000e+01     
 133.000         270.000           -1.317e+01          -1.317e+01             183.710          -1.086e+02               1.977           4.000e+01     
 132.000         270.000           -1.327e+01          -1.327e+01             185.029          -1.087e+02               2.628           4.000e+01     
 131.000         270.000           -1.338e+01          -1.338e+01             186.399          -1.089e+02               3.251           4.000e+01     
 130.000         270.000           -1.348e+01          -1.348e+01             187.818          -1.091e+02               3.845           4.000e+01     
 129.000         270.000           -1.358e+01          -1.358e+01             189.287          -1.093e+02               4.409           4.000e+01     
 128.000         270.000           -1.366e+01          -1.366e+01             190.804          -1.095e+02               4.942           4.000e+01     
 127.000         270.000           -1.375e+01          -1.375e+01             192.368          -1.097e+02               5.444           4.000e+01     
 126.000         270.000           -1.382e+01          -1.382e+01             193.976          -1.099e+02               5.913           4.000e+01     
 125.000         270.000           -1.389e+01          -1.389e+01             195.626          -1.101e+02               6.348           4.000e+01     
 124.000         270.000           -1.394e+01          -1.394e+01             197.315          -1.103e+02               6.747           4.000e+01     
 123.000         270.000           -1.399e+01          -1.399e+01             199.040          -1.106e+02               7.109           4.000e+01     
 122.000         270.000           -1.403e+01          -1.403e+01             200.796          -1.108e+02               7.431           4.000e+01     
 121.000         270.000           -1.405e+01          -1.405e+01             202.578          -1.111e+02               7.712           4.000e+01     
 120.000         270.000           -1.407e+01          -1.407e+01             204.383          -1.114e+02               7.948           4.000e+01     
 119.000         270.000           -1.408e+01          -1.408e+01             206.205          -1.117e+02               8.136           4.000e+01     
 118.000         270.000           -1.407e+01          -1.407e+01             208.039          -1.121e+02               8.271           4.000e+01     
 117.000         270.000           -1.405e+01          -1.405e+01             209.878          -1.124e+02               8.350           4.000e+01     
 116.000         270.000           -1.402e+01          -1.402e+01             211.718          -1.128e+02               8.366           4.000e+01     
 115.000         270.000           -1.398e+01          -1.398e+01             213.553          -1.131e+02               8.312           4.000e+01     
 114.000         270.000           -1.393e+01          -1.393e+01             215.377          -1.136e+02               8.180           4.000e+01     
 113.000         270.000           -1.386e+01          -1.386e+01             217.185          -1.140e+02               7.959           4.000e+01     
 112.000         270.000           -1.378e+01          -1.378e+01             218.972          -1.145e+02               7.637           4.000e+01     
 111.000         270.000           -1.370e+01          -1.370e+01             220.733          -1.150e+02               7.195           4.000e+01     
 110.000         270.000           -1.360e+01          -1.360e+01             222.464          -1.155e+02               6.614           4.000e+01     
 109.000         270.000           -1.350e+01          -1.350e+01             224.161          -1.161e+02               5.866           4.000e+01     
 108.000         270.000           -1.338e+01          -1.338e+01             225.820          -1.167e+02               4.916           4.000e+01     
 107.000         270.000           -1.326e+01          -1.326e+01             227.438          -1.174e+02               3.716           4.000e+01     
 106.000         270.000           -1.312e+01          -1.312e+01             229.014          -1.181e+02               2.204           4.000e+01     
 105.000         270.000           -1.298e+01          -1.298e+01             230.545          -1.189e+02               0.292           4.000e+01     
 104.000         270.000           -1.284e+01          -1.284e+01             232.029          -1.198e+02             357.858           4.000e+01     
 103.000         270.000           -1.268e+01          -1.268e+01             233.466          -1.208e+02             354.730           4.000e+01     
 102.000         270.000           -1.253e+01          -1.253e+01             234.854          -1.218e+02             350.662           4.000e+01     
 101.000         270.000           -1.236e+01          -1.236e+01             236.194          -1.229e+02             345.301           4.000e+01     
 100.000         270.000           -1.220e+01          -1.220e+01             237.486          -1.241e+02             338.169           4.000e+01     
  99.000         270.000           -1.202e+01          -1.202e+01             238.729          -1.252e+02             328.699           4.000e+01     
  98.000         270.000           -1.185e+01          -1.185e+01             239.925          -1.261e+02             316.484           4.000e+01     
  97.000         270.000           -1.167e+01          -1.167e+01             241.074          -1.267e+02             301.864           4.000e+01     
  96.000         270.000           -1.149e+01          -1.149e+01             242.177          -1.265e+02             286.430           4.000e+01     
  95.000         270.000           -1.131e+01          -1.131e+01             243.236          -1.259e+02             272.323           4.000e+01     
  94.000         270.000           -1.113e+01          -1.113e+01             244.250          -1.248e+02             260.800           4.000e+01     
  93.000         270.000           -1.094e+01          -1.094e+01             245.223          -1.236e+02             251.930           4.000e+01     
  92.000         270.000           -1.075e+01          -1.075e+01             246.154          -1.224e+02             245.218           4.000e+01     
  91.000         270.000           -1.057e+01          -1.057e+01             247.046          -1.213e+02             240.110           4.000e+01     
  90.000         270.000           -1.038e+01          -1.038e+01             247.900          -1.202e+02             236.161           4.000e+01     
  89.000         270.000           -1.019e+01          -1.019e+01             248.718          -1.192e+02             233.051           4.000e+01     
  88.000         270.000           -1.001e+01          -1.001e+01             249.500          -1.183e+02             230.555           4.000e+01     
  87.000         270.000           -9.819e+00          -9.819e+00             250.248          -1.175e+02             228.518           4.000e+01     
  86.000         270.000           -9.632e+00          -9.632e+00             250.964          -1.167e+02             226.827           4.000e+01     
  85.000         270.000           -9.446e+00          -9.446e+00             251.649          -1.160e+02             225.402           4.000e+01     
  84.000         270.000           -9.261e+00          -9.261e+00             252.305          -1.154e+02             224.186           4.000e+01     
  83.000         270.000           -9.076e+00          -9.076e+00             252.932          -1.148e+02             223.134           4.000e+01     
  82.000         270.000           -8.893e+00          -8.893e+00             253.532          -1.142e+02             222.214           4.000e+01     
  81.000         270.000           -8.710e+00          -8.710e+00             254.106          -1.136e+02             221.399           4.000e+01     
  80.000         270.000           -8.529e+00          -8.529e+00             254.656          -1.131e+02             220.670           4.000e+01     
  79.000         270.000           -8.349e+00          -8.349e+00             255.182          -1.127e+02             220.012           4.000e+01     
  78.000         270.000           -8.170e+00          -8.170e+00             255.686          -1.122e+02             219.411           4.000e+01     
  77.000         270.000           -7.993e+00          -7.993e+00             256.168          -1.118e+02             218.857           4.000e+01     
  76.000         270.000           -7.817e+00          -7.817e+00             256.630          -1.114e+02             218.343           4.000e+01     
  75.000         270.000           -7.643e+00          -7.643e+00             257.073          -1.110e+02             217.860           4.000e+01     
  74.000         270.000           -7.470e+00          -7.470e+00             257.497          -1.106e+02             217.405           4.000e+01     
  73.000         270.000           -7.299e+00          -7.299e+00             257.903          -1.103e+02             216.971           4.000e+01     
  72.000         270.000           -7.130e+00          -7.130e+00             258.292          -1.100e+02             216.555           4.000e+01     
  71.000         270.000           -6.962e+00          -6.962e+00             258.665          -1.097e+02             216.153           4.000e+01     
  70.000         270.000           -6.796e+00          -6.796e+00             259.023          -1.094e+02             215.762           4.000e+01     
  69.000         270.000           -6.632e+00          -6.632e+00             259.366          -1.091e+02             215.380           4.000e+01     
  68.000         270.000           -6.470e+00          -6.470e+00             259.695          -1.088e+02             215.005           4.000e+01     
  67.000         270.000           -6.309e+00          -6.309e+00             260.011          -1.085e+02             214.634           4.000e+01     
  66.000         270.000           -6.150e+00          -6.150e+00             260.314          -1.083e+02             214.266           4.000e+01     
  65.000         270.000           -5.994e+00          -5.994e+00             260.604          -1.081e+02             213.900           4.000e+01     
  64.000         270.000           -5.839e+00          -5.839e+00             260.883          -1.078e+02             213.533           4.000e+01     
  63.000         270.000           -5.686e+00          -5.686e+00             261.151          -1.076e+02             213.165           4.000e+01     
  62.000         270.000           -5.535e+00          -5.535e+00             261.407          -1.074e+02             212.795           4.000e+01     
  61.000         270.000           -5.386e+00          -5.386e+00             261.654          -1.072e+02             212.422           4.000e+01     
  60.000         270.000           -5.239e+00          -5.239e+00             261.890          -1.070e+02             212.045           4.000e+01     
  59.000         270.000           -5.094e+00          -5.094e+00             262.117          -1.068e+02             211.663           4.000e+01     
  58.000         270.000           -4.951e+00          -4.951e+00             262.335          -1.066e+02             211.275           4.000e+01     
  57.000         270.000           -4.811e+00          -4.811e+00             262.545          -1.065e+02             210.881           4.000e+01     
  56.000         270.000           -4.672e+00          -4.672e+00             262.745          -1.063e+02             210.481           4.000e+01     
  55.000         270.000           -4.535e+00          -4.535e+00             262.938          -1.062e+02             210.073           4.000e+01     
  54.000         270.000           -4.401e+00          -4.401e+00             263.123          -1.060e+02             209.656           4.000e+01     
  53.000         270.000           -4.268e+00          -4.268e+00             263.300          -1.059e+02             209.232           4.000e+01     
  52.000         270.000           -4.138e+00          -4.138e+00             263.470          -1.057e+02             208.798           4.000e+01     
  51.000         270.000           -4.010e+00          -4.010e+00             263.634          -1.056e+02             208.355           4.000e+01     
  50.000         270.000           -3.884e+00          -3.884e+00             263.790          -1.055e+02             207.903           4.000e+01     
  49.000         270.000           -3.761e+00          -3.761e+00             263.940          -1.054e+02             207.440           4.000e+01     
  48.000         270.000           -3.639e+00          -3.639e+00             264.084          -1.053e+02             206.967           4.000e+01     
  47.000         270.000           -3.520e+00          -3.520e+00             264.221          -1.052e+02             206.483           4.000e+01     
  46.000         270.000           -3.403e+00          -3.403e+00             264.353          -1.051e+02             205.987           4.000e+01     
  45.000         270.000           -3.289e+00          -3.289e+00             264.479          -1.050e+02             205.480           4.000e+01     
  44.000         270.000           -3.176e+00          -3.176e+00             264.599          -1.049e+02             204.961           4.000e+01     
  43.000         270.000           -3.066e+00          -3.066e+00             264.714          -1.048e+02             204.430           4.000e+01     
  42.000         270.000           -2.958e+00          -2.958e+00             264.824          -1.047e+02             203.887           4.000e+01     
  41.000         270.000           -2.853e+00          -2.853e+00             264.929          -1.047e+02             203.331           4.000e+01     
  40.000         270.000           -2.750e+00          -2.750e+00             265.028          -1.046e+02             202.761           4.000e+01     
  39.000         270.000           -2.649e+00          -2.649e+00             265.123          -1.045e+02             202.179           4.000e+01     
  38.000         270.000           -2.551e+00          -2.551e+00             265.214          -1.045e+02             201.583           4.000e+01     
  37.000         270.000           -2.455e+00          -2.455e+00             265.300          -1.044e+02             200.973           4.000e+01     
  36.000         270.000           -2.362e+00          -2.362e+00             265.381          -1.044e+02             200.349           4.000e+01     
  35.000         270.000           -2.271e+00          -2.271e+00             265.458          -1.043e+02             199.712           4.000e+01     
  34.000         270.000           -2.182e+00          -2.182e+00             265.531          -1.043e+02             199.059           4.000e+01     
  33.000         270.000           -2.096e+00          -2.096e+00             265.599          -1.042e+02             198.392           4.000e+01     
  32.000         270.000           -2.013e+00          -2.013e+00             265.664          -1.042e+02             197.711           4.000e+01     
  31.000         270.000           -1.932e+00          -1.932e+00             265.724          -1.042e+02             197.014           4.000e+01     
  30.000         270.000           -1.853e+00          -1.853e+00             265.781          -1.041e+02             196.303           4.000e+01     
  29.000         270.000           -1.777e+00          -1.777e+00             265.834          -1.041e+02             195.576           4.000e+01     
  28.000         270.000           -1.704e+00          -1.704e+00             265.883          -1.041e+02             194.834           4.000e+01     
  27.000         270.000           -1.633e+00          -1.633e+00             265.929          -1.041e+02             194.076           4.000e+01     
  26.000         270.000           -1.565e+00          -1.565e+00             265.970          -1.041e+02             193.303           4.000e+01     
  25.000         270.000           -1.499e+00          -1.499e+00             266.009          -1.041e+02             192.514           4.000e+01     
  24.000         270.000           -1.436e+00          -1.436e+00             266.044          -1.040e+02             191.710           4.000e+01     
  23.000         270.000           -1.376e+00          -1.376e+00             266.075          -1.040e+02             190.890           4.000e+01     
  22.000         270.000           -1.318e+00          -1.318e+00             266.103          -1.040e+02             190.054           4.000e+01     
  21.000         270.000           -1.263e+00          -1.263e+00             266.128          -1.040e+02             189.203           4.000e+01     
  20.000         270.000           -1.210e+00          -1.210e+00             266.150          -1.040e+02             188.336           4.000e+01     
  19.000         270.000           -1.160e+00          -1.160e+00             266.168          -1.041e+02             187.453           4.000e+01     
  18.000         270.000           -1.113e+00          -1.113e+00             266.183          -1.041e+02             186.556           4.000e+01     
  17.000         270.000           -1.068e+00          -1.068e+00             266.195          -1.041e+02             185.643           4.000e+01     
  16.000         270.000           -1.026e+00          -1.026e+00             266.204          -1.041e+02             184.714           4.000e+01     
  15.000         270.000           -9.873e-01          -9.873e-01             266.210          -1.041e+02             183.771           4.000e+01     
  14.000         270.000           -9.509e-01          -9.509e-01             266.213          -1.041e+02             182.814           4.000e+01     
  13.000         270.000           -9.171e-01          -9.171e-01             266.213          -1.041e+02             181.842           4.000e+01     
  12.000         270.000           -8.861e-01          -8.861e-01             266.210          -1.042e+02             180.856           4.000e+01     
  11.000         270.000           -8.578e-01          -8.578e-01             266.204          -1.042e+02             179.856           4.000e+01     
  10.000         270.000           -8.322e-01          -8.322e-01             266.195          -1.042e+02             178.843           4.000e+01     
   9.000         270.000           -8.094e-01          -8.094e-01             266.184          -1.042e+02             177.818           4.000e+01     
   8.000         270.000           -7.894e-01          -7.894e-01             266.169          -1.043e+02             176.780           4.000e+01     
   7.000         270.000           -7.720e-01          -7.720e-01             266.152          -1.043e+02             175.730           4.000e+01     
   6.000         270.000           -7.574e-01          -7.574e-01             266.132          -1.043e+02             174.669           4.000e+01     
   5.000         270.000           -7.456e-01          -7.456e-01             266.109          -1.043e+02             173.597           4.000e+01     
   4.000         270.000           -7.366e-01          -7.366e-01             266.083          -1.044e+02             172.516           4.000e+01     
   3.000         270.000           -7.303e-01          -7.303e-01             266.055          -1.044e+02             171.425           4.000e+01     
   2.000         270.000           -7.267e-01          -7.267e-01             266.024          -1.044e+02             170.325           4.000e+01     
   1.000         270.000           -7.259e-01          -7.259e-01             265.990          -1.045e+02             169.218           4.000e+01     
